# E (eV)   ldos(E)   pdos(E)    pdos(E)    pdos(E)   
-22.880 -0.112E-05 -0.249E-08 -0.311E-08 -0.111E-05
-22.860 -0.167E-05 -0.373E-08 -0.462E-08 -0.166E-05
-22.840 -0.246E-05 -0.553E-08 -0.678E-08 -0.245E-05
-22.820 -0.359E-05 -0.811E-08 -0.984E-08 -0.357E-05
-22.800 -0.516E-05 -0.117E-07 -0.141E-07 -0.514E-05
-22.780 -0.734E-05 -0.168E-07 -0.200E-07 -0.730E-05
-22.760 -0.103E-04 -0.237E-07 -0.280E-07 -0.102E-04
-22.740 -0.143E-04 -0.331E-07 -0.388E-07 -0.142E-04
-22.720 -0.195E-04 -0.456E-07 -0.530E-07 -0.194E-04
-22.700 -0.264E-04 -0.621E-07 -0.716E-07 -0.263E-04
-22.680 -0.352E-04 -0.835E-07 -0.956E-07 -0.350E-04
-22.660 -0.463E-04 -0.111E-06 -0.126E-06 -0.461E-04
-22.640 -0.601E-04 -0.145E-06 -0.165E-06 -0.598E-04
-22.620 -0.769E-04 -0.188E-06 -0.212E-06 -0.765E-04
-22.600 -0.970E-04 -0.240E-06 -0.271E-06 -0.965E-04
-22.580 -0.121E-03 -0.302E-06 -0.342E-06 -0.120E-03
-22.560 -0.148E-03 -0.376E-06 -0.426E-06 -0.147E-03
-22.540 -0.178E-03 -0.460E-06 -0.526E-06 -0.177E-03
-22.520 -0.212E-03 -0.556E-06 -0.643E-06 -0.210E-03
-22.500 -0.247E-03 -0.662E-06 -0.778E-06 -0.245E-03
-22.480 -0.282E-03 -0.776E-06 -0.932E-06 -0.281E-03
-22.460 -0.317E-03 -0.895E-06 -0.111E-05 -0.315E-03
-22.440 -0.348E-03 -0.102E-05 -0.131E-05 -0.346E-03
-22.420 -0.373E-03 -0.113E-05 -0.153E-05 -0.370E-03
-22.400 -0.388E-03 -0.124E-05 -0.178E-05 -0.385E-03
-22.380 -0.389E-03 -0.132E-05 -0.205E-05 -0.386E-03
-22.360 -0.374E-03 -0.138E-05 -0.236E-05 -0.370E-03
-22.340 -0.336E-03 -0.140E-05 -0.270E-05 -0.332E-03
-22.320 -0.272E-03 -0.137E-05 -0.308E-05 -0.268E-03
-22.300 -0.178E-03 -0.127E-05 -0.348E-05 -0.173E-03
-22.280 -0.490E-04 -0.109E-05 -0.393E-05 -0.440E-04
-22.260  0.119E-03 -0.821E-06 -0.440E-05  0.124E-03
-22.240  0.329E-03 -0.438E-06 -0.489E-05  0.334E-03
-22.220  0.585E-03  0.755E-07 -0.539E-05  0.590E-03
-22.200  0.889E-03  0.739E-06 -0.588E-05  0.894E-03
-22.180  0.125E-02  0.157E-05 -0.632E-05  0.125E-02
-22.160  0.165E-02  0.260E-05 -0.667E-05  0.166E-02
-22.140  0.212E-02  0.385E-05 -0.689E-05  0.212E-02
-22.120  0.265E-02  0.534E-05 -0.691E-05  0.265E-02
-22.100  0.323E-02  0.711E-05 -0.666E-05  0.323E-02
-22.080  0.389E-02  0.917E-05 -0.604E-05  0.388E-02
-22.060  0.461E-02  0.116E-04 -0.499E-05  0.460E-02
-22.040  0.539E-02  0.143E-04 -0.342E-05  0.538E-02
-22.020  0.626E-02  0.174E-04 -0.125E-05  0.624E-02
-22.000  0.719E-02  0.208E-04  0.155E-05  0.717E-02
-21.980  0.820E-02  0.247E-04  0.498E-05  0.817E-02
-21.960  0.927E-02  0.288E-04  0.895E-05  0.923E-02
-21.940  0.104E-01  0.334E-04  0.133E-04  0.104E-01
-21.920  0.116E-01  0.382E-04  0.177E-04  0.115E-01
-21.900  0.128E-01  0.433E-04  0.216E-04  0.128E-01
-21.880  0.141E-01  0.486E-04  0.242E-04  0.140E-01
-21.860  0.154E-01  0.540E-04  0.244E-04  0.153E-01
-21.840  0.167E-01  0.595E-04  0.206E-04  0.166E-01
-21.820  0.179E-01  0.649E-04  0.109E-04  0.178E-01
-21.800  0.191E-01  0.702E-04 -0.755E-05  0.191E-01
-21.780  0.203E-01  0.753E-04 -0.379E-04  0.202E-01
-21.760  0.213E-01  0.801E-04 -0.844E-04  0.213E-01
-21.740  0.222E-01  0.844E-04 -0.152E-03  0.223E-01
-21.720  0.230E-01  0.883E-04 -0.245E-03  0.231E-01
-21.700  0.236E-01  0.917E-04 -0.371E-03  0.239E-01
-21.680  0.241E-01  0.944E-04 -0.536E-03  0.245E-01
-21.660  0.244E-01  0.965E-04 -0.745E-03  0.250E-01
-21.640  0.245E-01  0.979E-04 -0.100E-02  0.254E-01
-21.620  0.244E-01  0.987E-04 -0.132E-02  0.256E-01
-21.600  0.242E-01  0.989E-04 -0.168E-02  0.258E-01
-21.580  0.238E-01  0.985E-04 -0.209E-02  0.258E-01
-21.560  0.233E-01  0.976E-04 -0.254E-02  0.257E-01
-21.540  0.227E-01  0.964E-04 -0.301E-02  0.256E-01
-21.520  0.220E-01  0.950E-04 -0.347E-02  0.254E-01
-21.500  0.214E-01  0.937E-04 -0.388E-02  0.252E-01
-21.480  0.208E-01  0.927E-04 -0.419E-02  0.249E-01
-21.460  0.204E-01  0.923E-04 -0.434E-02  0.246E-01
-21.440  0.202E-01  0.928E-04 -0.424E-02  0.244E-01
-21.420  0.204E-01  0.946E-04 -0.380E-02  0.241E-01
-21.400  0.211E-01  0.979E-04 -0.293E-02  0.239E-01
-21.380  0.223E-01  0.103E-03 -0.151E-02  0.237E-01
-21.360  0.242E-01  0.111E-03  0.548E-03  0.236E-01
-21.340  0.269E-01  0.121E-03  0.336E-02  0.235E-01
-21.320  0.305E-01  0.133E-03  0.700E-02  0.234E-01
-21.300  0.350E-01  0.149E-03  0.115E-01  0.234E-01
-21.280  0.405E-01  0.167E-03  0.170E-01  0.234E-01
-21.260  0.469E-01  0.187E-03  0.234E-01  0.234E-01
-21.240  0.542E-01  0.210E-03  0.306E-01  0.234E-01
-21.220  0.622E-01  0.234E-03  0.386E-01  0.234E-01
-21.200  0.709E-01  0.259E-03  0.472E-01  0.235E-01
-21.180  0.799E-01  0.285E-03  0.561E-01  0.235E-01
-21.160  0.890E-01  0.309E-03  0.652E-01  0.235E-01
-21.140  0.981E-01  0.332E-03  0.742E-01  0.235E-01
-21.120  0.107E+00  0.353E-03  0.828E-01  0.235E-01
-21.100  0.114E+00  0.370E-03  0.906E-01  0.234E-01
-21.080  0.121E+00  0.383E-03  0.974E-01  0.234E-01
-21.060  0.127E+00  0.391E-03  0.103E+00  0.234E-01
-21.040  0.131E+00  0.395E-03  0.107E+00  0.234E-01
-21.020  0.133E+00  0.392E-03  0.109E+00  0.234E-01
-21.000  0.134E+00  0.385E-03  0.110E+00  0.234E-01
-20.980  0.133E+00  0.372E-03  0.109E+00  0.235E-01
-20.960  0.131E+00  0.355E-03  0.107E+00  0.236E-01
-20.940  0.127E+00  0.335E-03  0.103E+00  0.237E-01
-20.920  0.121E+00  0.311E-03  0.973E-01  0.239E-01
-20.900  0.115E+00  0.285E-03  0.909E-01  0.241E-01
-20.880  0.108E+00  0.259E-03  0.838E-01  0.243E-01
-20.860  0.101E+00  0.232E-03  0.763E-01  0.246E-01
-20.840  0.936E-01  0.207E-03  0.686E-01  0.248E-01
-20.820  0.863E-01  0.184E-03  0.610E-01  0.251E-01
-20.800  0.793E-01  0.163E-03  0.538E-01  0.253E-01
-20.780  0.728E-01  0.145E-03  0.471E-01  0.255E-01
-20.760  0.670E-01  0.130E-03  0.411E-01  0.257E-01
-20.740  0.619E-01  0.119E-03  0.359E-01  0.259E-01
-20.720  0.576E-01  0.112E-03  0.315E-01  0.260E-01
-20.700  0.541E-01  0.107E-03  0.279E-01  0.261E-01
-20.680  0.513E-01  0.106E-03  0.251E-01  0.261E-01
-20.660  0.492E-01  0.107E-03  0.230E-01  0.261E-01
-20.640  0.476E-01  0.110E-03  0.215E-01  0.260E-01
-20.620  0.466E-01  0.115E-03  0.205E-01  0.259E-01
-20.600  0.459E-01  0.121E-03  0.200E-01  0.258E-01
-20.580  0.456E-01  0.128E-03  0.197E-01  0.257E-01
-20.560  0.454E-01  0.134E-03  0.198E-01  0.255E-01
-20.540  0.454E-01  0.141E-03  0.199E-01  0.254E-01
-20.520  0.455E-01  0.147E-03  0.202E-01  0.252E-01
-20.500  0.457E-01  0.153E-03  0.205E-01  0.250E-01
-20.480  0.458E-01  0.157E-03  0.209E-01  0.248E-01
-20.460  0.460E-01  0.161E-03  0.212E-01  0.246E-01
-20.440  0.460E-01  0.164E-03  0.215E-01  0.243E-01
-20.420  0.460E-01  0.166E-03  0.218E-01  0.240E-01
-20.400  0.458E-01  0.167E-03  0.221E-01  0.236E-01
-20.380  0.455E-01  0.167E-03  0.223E-01  0.231E-01
-20.360  0.451E-01  0.167E-03  0.224E-01  0.226E-01
-20.340  0.445E-01  0.165E-03  0.224E-01  0.219E-01
-20.320  0.437E-01  0.163E-03  0.223E-01  0.213E-01
-20.300  0.428E-01  0.159E-03  0.221E-01  0.205E-01
-20.280  0.417E-01  0.155E-03  0.218E-01  0.197E-01
-20.260  0.405E-01  0.151E-03  0.214E-01  0.189E-01
-20.240  0.392E-01  0.145E-03  0.209E-01  0.181E-01
-20.220  0.378E-01  0.139E-03  0.204E-01  0.173E-01
-20.200  0.364E-01  0.133E-03  0.197E-01  0.166E-01
-20.180  0.352E-01  0.126E-03  0.190E-01  0.160E-01
-20.160  0.340E-01  0.119E-03  0.183E-01  0.156E-01
-20.140  0.332E-01  0.112E-03  0.176E-01  0.154E-01
-20.120  0.326E-01  0.105E-03  0.170E-01  0.155E-01
-20.100  0.324E-01  0.990E-04  0.165E-01  0.158E-01
-20.080  0.325E-01  0.936E-04  0.161E-01  0.164E-01
-20.060  0.331E-01  0.891E-04  0.158E-01  0.172E-01
-20.040  0.341E-01  0.857E-04  0.157E-01  0.183E-01
-20.020  0.355E-01  0.836E-04  0.158E-01  0.197E-01
-20.000  0.373E-01  0.828E-04  0.160E-01  0.213E-01
-19.980  0.393E-01  0.833E-04  0.163E-01  0.230E-01
-19.960  0.416E-01  0.851E-04  0.167E-01  0.248E-01
-19.940  0.440E-01  0.881E-04  0.172E-01  0.267E-01
-19.920  0.464E-01  0.920E-04  0.178E-01  0.285E-01
-19.900  0.488E-01  0.968E-04  0.184E-01  0.303E-01
-19.880  0.510E-01  0.102E-03  0.190E-01  0.320E-01
-19.860  0.531E-01  0.108E-03  0.195E-01  0.335E-01
-19.840  0.550E-01  0.114E-03  0.201E-01  0.348E-01
-19.820  0.567E-01  0.120E-03  0.207E-01  0.359E-01
-19.800  0.582E-01  0.125E-03  0.212E-01  0.368E-01
-19.780  0.594E-01  0.131E-03  0.218E-01  0.375E-01
-19.760  0.606E-01  0.136E-03  0.224E-01  0.381E-01
-19.740  0.616E-01  0.140E-03  0.230E-01  0.384E-01
-19.720  0.625E-01  0.144E-03  0.237E-01  0.387E-01
-19.700  0.634E-01  0.147E-03  0.244E-01  0.388E-01
-19.680  0.644E-01  0.150E-03  0.253E-01  0.389E-01
-19.660  0.653E-01  0.153E-03  0.262E-01  0.390E-01
-19.640  0.663E-01  0.155E-03  0.271E-01  0.390E-01
-19.620  0.673E-01  0.156E-03  0.281E-01  0.390E-01
-19.600  0.682E-01  0.157E-03  0.290E-01  0.391E-01
-19.580  0.692E-01  0.158E-03  0.299E-01  0.391E-01
-19.560  0.700E-01  0.158E-03  0.307E-01  0.392E-01
-19.540  0.707E-01  0.157E-03  0.313E-01  0.392E-01
-19.520  0.711E-01  0.155E-03  0.316E-01  0.393E-01
-19.500  0.713E-01  0.153E-03  0.318E-01  0.394E-01
-19.480  0.712E-01  0.150E-03  0.316E-01  0.394E-01
-19.460  0.708E-01  0.146E-03  0.312E-01  0.395E-01
-19.440  0.701E-01  0.142E-03  0.305E-01  0.395E-01
-19.420  0.691E-01  0.136E-03  0.295E-01  0.394E-01
-19.400  0.678E-01  0.130E-03  0.283E-01  0.393E-01
-19.380  0.662E-01  0.123E-03  0.270E-01  0.391E-01
-19.360  0.645E-01  0.116E-03  0.254E-01  0.389E-01
-19.340  0.626E-01  0.108E-03  0.238E-01  0.387E-01
-19.320  0.607E-01  0.101E-03  0.222E-01  0.384E-01
-19.300  0.587E-01  0.940E-04  0.206E-01  0.381E-01
-19.280  0.569E-01  0.875E-04  0.191E-01  0.377E-01
-19.260  0.551E-01  0.817E-04  0.177E-01  0.373E-01
-19.240  0.535E-01  0.768E-04  0.165E-01  0.369E-01
-19.220  0.521E-01  0.729E-04  0.154E-01  0.366E-01
-19.200  0.508E-01  0.702E-04  0.146E-01  0.362E-01
-19.180  0.498E-01  0.687E-04  0.139E-01  0.359E-01
-19.160  0.489E-01  0.684E-04  0.133E-01  0.356E-01
-19.140  0.482E-01  0.692E-04  0.129E-01  0.353E-01
-19.120  0.477E-01  0.710E-04  0.125E-01  0.351E-01
-19.100  0.473E-01  0.737E-04  0.123E-01  0.350E-01
-19.080  0.470E-01  0.770E-04  0.120E-01  0.349E-01
-19.060  0.467E-01  0.808E-04  0.118E-01  0.349E-01
-19.040  0.465E-01  0.848E-04  0.114E-01  0.349E-01
-19.020  0.462E-01  0.888E-04  0.111E-01  0.351E-01
-19.000  0.459E-01  0.927E-04  0.106E-01  0.352E-01
-18.980  0.456E-01  0.961E-04  0.101E-01  0.354E-01
-18.960  0.451E-01  0.990E-04  0.940E-02  0.356E-01
-18.940  0.445E-01  0.101E-03  0.864E-02  0.358E-01
-18.920  0.439E-01  0.103E-03  0.779E-02  0.360E-01
-18.900  0.431E-01  0.103E-03  0.687E-02  0.361E-01
-18.880  0.422E-01  0.103E-03  0.590E-02  0.362E-01
-18.860  0.412E-01  0.101E-03  0.492E-02  0.362E-01
-18.840  0.401E-01  0.993E-04  0.395E-02  0.360E-01
-18.820  0.389E-01  0.966E-04  0.303E-02  0.358E-01
-18.800  0.377E-01  0.933E-04  0.220E-02  0.354E-01
-18.780  0.365E-01  0.896E-04  0.152E-02  0.349E-01
-18.760  0.354E-01  0.857E-04  0.103E-02  0.343E-01
-18.740  0.344E-01  0.818E-04  0.788E-03  0.335E-01
-18.720  0.337E-01  0.781E-04  0.837E-03  0.327E-01
-18.700  0.332E-01  0.747E-04  0.123E-02  0.319E-01
-18.680  0.331E-01  0.719E-04  0.201E-02  0.310E-01
-18.660  0.334E-01  0.698E-04  0.321E-02  0.301E-01
-18.640  0.342E-01  0.686E-04  0.486E-02  0.293E-01
-18.620  0.355E-01  0.684E-04  0.698E-02  0.285E-01
-18.600  0.375E-01  0.693E-04  0.955E-02  0.279E-01
-18.580  0.400E-01  0.713E-04  0.126E-01  0.274E-01
-18.560  0.431E-01  0.745E-04  0.160E-01  0.271E-01
-18.540  0.468E-01  0.787E-04  0.197E-01  0.270E-01
-18.520  0.509E-01  0.838E-04  0.238E-01  0.271E-01
-18.500  0.554E-01  0.899E-04  0.279E-01  0.274E-01
-18.480  0.602E-01  0.966E-04  0.321E-01  0.280E-01
-18.460  0.651E-01  0.104E-03  0.363E-01  0.287E-01
-18.440  0.700E-01  0.111E-03  0.403E-01  0.296E-01
-18.420  0.747E-01  0.119E-03  0.439E-01  0.307E-01
-18.400  0.792E-01  0.126E-03  0.471E-01  0.319E-01
-18.380  0.832E-01  0.133E-03  0.499E-01  0.332E-01
-18.360  0.867E-01  0.140E-03  0.520E-01  0.345E-01
-18.340  0.895E-01  0.146E-03  0.536E-01  0.358E-01
-18.320  0.917E-01  0.151E-03  0.544E-01  0.371E-01
-18.300  0.932E-01  0.155E-03  0.547E-01  0.383E-01
-18.280  0.940E-01  0.158E-03  0.544E-01  0.395E-01
-18.260  0.941E-01  0.160E-03  0.535E-01  0.405E-01
-18.240  0.937E-01  0.161E-03  0.522E-01  0.413E-01
-18.220  0.928E-01  0.161E-03  0.506E-01  0.420E-01
-18.200  0.914E-01  0.161E-03  0.487E-01  0.426E-01
-18.180  0.898E-01  0.160E-03  0.467E-01  0.430E-01
-18.160  0.881E-01  0.159E-03  0.446E-01  0.433E-01
-18.140  0.863E-01  0.158E-03  0.427E-01  0.434E-01
-18.120  0.846E-01  0.156E-03  0.410E-01  0.435E-01
-18.100  0.830E-01  0.154E-03  0.395E-01  0.434E-01
-18.080  0.817E-01  0.153E-03  0.383E-01  0.432E-01
-18.060  0.806E-01  0.152E-03  0.375E-01  0.430E-01
-18.040  0.799E-01  0.151E-03  0.370E-01  0.427E-01
-18.020  0.796E-01  0.151E-03  0.370E-01  0.425E-01
-18.000  0.796E-01  0.150E-03  0.373E-01  0.422E-01
-17.980  0.800E-01  0.151E-03  0.379E-01  0.420E-01
-17.960  0.807E-01  0.151E-03  0.388E-01  0.418E-01
-17.940  0.817E-01  0.152E-03  0.399E-01  0.417E-01
-17.920  0.830E-01  0.153E-03  0.412E-01  0.416E-01
-17.900  0.845E-01  0.154E-03  0.427E-01  0.417E-01
-17.880  0.862E-01  0.156E-03  0.442E-01  0.418E-01
-17.860  0.879E-01  0.157E-03  0.457E-01  0.421E-01
-17.840  0.897E-01  0.158E-03  0.471E-01  0.424E-01
-17.820  0.916E-01  0.159E-03  0.486E-01  0.429E-01
-17.800  0.934E-01  0.160E-03  0.499E-01  0.434E-01
-17.780  0.952E-01  0.161E-03  0.511E-01  0.439E-01
-17.760  0.969E-01  0.161E-03  0.522E-01  0.445E-01
-17.740  0.984E-01  0.161E-03  0.531E-01  0.451E-01
-17.720  0.998E-01  0.161E-03  0.539E-01  0.457E-01
-17.700  0.101E+00  0.160E-03  0.546E-01  0.461E-01
-17.680  0.102E+00  0.159E-03  0.552E-01  0.465E-01
-17.660  0.103E+00  0.157E-03  0.557E-01  0.468E-01
-17.640  0.103E+00  0.155E-03  0.561E-01  0.470E-01
-17.620  0.103E+00  0.153E-03  0.564E-01  0.469E-01
-17.600  0.104E+00  0.150E-03  0.567E-01  0.468E-01
-17.580  0.104E+00  0.148E-03  0.571E-01  0.465E-01
-17.560  0.104E+00  0.145E-03  0.575E-01  0.460E-01
-17.540  0.104E+00  0.143E-03  0.581E-01  0.455E-01
-17.520  0.104E+00  0.142E-03  0.589E-01  0.449E-01
-17.500  0.104E+00  0.141E-03  0.599E-01  0.443E-01
-17.480  0.105E+00  0.142E-03  0.612E-01  0.437E-01
-17.460  0.106E+00  0.144E-03  0.627E-01  0.432E-01
-17.440  0.108E+00  0.147E-03  0.647E-01  0.429E-01
-17.420  0.110E+00  0.152E-03  0.669E-01  0.427E-01
-17.400  0.112E+00  0.158E-03  0.694E-01  0.426E-01
-17.380  0.115E+00  0.166E-03  0.720E-01  0.429E-01
-17.360  0.118E+00  0.175E-03  0.748E-01  0.433E-01
-17.340  0.122E+00  0.184E-03  0.776E-01  0.439E-01
-17.320  0.125E+00  0.195E-03  0.803E-01  0.448E-01
-17.300  0.129E+00  0.206E-03  0.827E-01  0.458E-01
-17.280  0.132E+00  0.216E-03  0.846E-01  0.470E-01
-17.260  0.135E+00  0.226E-03  0.860E-01  0.483E-01
-17.240  0.137E+00  0.235E-03  0.868E-01  0.496E-01
-17.220  0.138E+00  0.243E-03  0.868E-01  0.509E-01
-17.200  0.138E+00  0.249E-03  0.861E-01  0.521E-01
-17.180  0.138E+00  0.252E-03  0.844E-01  0.532E-01
-17.160  0.136E+00  0.254E-03  0.820E-01  0.542E-01
-17.140  0.134E+00  0.253E-03  0.788E-01  0.549E-01
-17.120  0.131E+00  0.251E-03  0.749E-01  0.555E-01
-17.100  0.126E+00  0.246E-03  0.705E-01  0.557E-01
-17.080  0.121E+00  0.239E-03  0.656E-01  0.556E-01
-17.060  0.116E+00  0.230E-03  0.603E-01  0.553E-01
-17.040  0.110E+00  0.220E-03  0.548E-01  0.546E-01
-17.020  0.103E+00  0.209E-03  0.493E-01  0.535E-01
-17.000  0.963E-01  0.197E-03  0.439E-01  0.522E-01
-16.980  0.893E-01  0.184E-03  0.386E-01  0.504E-01
-16.960  0.822E-01  0.171E-03  0.336E-01  0.484E-01
-16.940  0.752E-01  0.157E-03  0.290E-01  0.461E-01
-16.920  0.683E-01  0.144E-03  0.247E-01  0.435E-01
-16.900  0.616E-01  0.132E-03  0.209E-01  0.406E-01
-16.880  0.551E-01  0.119E-03  0.175E-01  0.375E-01
-16.860  0.490E-01  0.108E-03  0.145E-01  0.343E-01
-16.840  0.432E-01  0.970E-04  0.120E-01  0.311E-01
-16.820  0.378E-01  0.870E-04  0.993E-02  0.277E-01
-16.800  0.328E-01  0.778E-04  0.823E-02  0.245E-01
-16.780  0.282E-01  0.696E-04  0.689E-02  0.213E-01
-16.760  0.241E-01  0.623E-04  0.586E-02  0.182E-01
-16.740  0.205E-01  0.559E-04  0.512E-02  0.154E-01
-16.720  0.174E-01  0.504E-04  0.462E-02  0.127E-01
-16.700  0.147E-01  0.458E-04  0.432E-02  0.104E-01
-16.680  0.125E-01  0.419E-04  0.420E-02  0.829E-02
-16.660  0.107E-01  0.388E-04  0.421E-02  0.649E-02
-16.640  0.935E-02  0.364E-04  0.432E-02  0.499E-02
-16.620  0.831E-02  0.345E-04  0.452E-02  0.376E-02
-16.600  0.760E-02  0.331E-04  0.478E-02  0.278E-02
-16.580  0.715E-02  0.321E-04  0.508E-02  0.204E-02
-16.560  0.694E-02  0.314E-04  0.541E-02  0.149E-02
-16.540  0.691E-02  0.310E-04  0.576E-02  0.112E-02
-16.520  0.704E-02  0.307E-04  0.612E-02  0.885E-03
-16.500  0.728E-02  0.306E-04  0.649E-02  0.755E-03
-16.480  0.760E-02  0.304E-04  0.687E-02  0.701E-03
-16.460  0.799E-02  0.303E-04  0.726E-02  0.697E-03
-16.440  0.841E-02  0.301E-04  0.766E-02  0.720E-03
-16.420  0.886E-02  0.297E-04  0.808E-02  0.754E-03
-16.400  0.933E-02  0.292E-04  0.852E-02  0.782E-03
-16.380  0.981E-02  0.285E-04  0.898E-02  0.797E-03
-16.360  0.103E-01  0.277E-04  0.947E-02  0.792E-03
-16.340  0.108E-01  0.266E-04  0.998E-02  0.767E-03
-16.320  0.113E-01  0.253E-04  0.105E-01  0.724E-03
-16.300  0.118E-01  0.238E-04  0.111E-01  0.671E-03
-16.280  0.123E-01  0.221E-04  0.116E-01  0.618E-03
-16.260  0.128E-01  0.204E-04  0.122E-01  0.583E-03
-16.240  0.133E-01  0.187E-04  0.127E-01  0.584E-03
-16.220  0.138E-01  0.172E-04  0.132E-01  0.645E-03
-16.200  0.144E-01  0.160E-04  0.136E-01  0.796E-03
-16.180  0.150E-01  0.152E-04  0.139E-01  0.107E-02
-16.160  0.157E-01  0.152E-04  0.142E-01  0.150E-02
-16.140  0.164E-01  0.161E-04  0.143E-01  0.212E-02
-16.120  0.172E-01  0.182E-04  0.142E-01  0.297E-02
-16.100  0.181E-01  0.218E-04  0.140E-01  0.409E-02
-16.080  0.192E-01  0.271E-04  0.136E-01  0.553E-02
-16.060  0.204E-01  0.344E-04  0.131E-01  0.730E-02
-16.040  0.218E-01  0.440E-04  0.123E-01  0.945E-02
-16.020  0.235E-01  0.560E-04  0.115E-01  0.120E-01
-16.000  0.255E-01  0.707E-04  0.104E-01  0.150E-01
-15.980  0.277E-01  0.883E-04  0.927E-02  0.184E-01
-15.960  0.303E-01  0.109E-03  0.803E-02  0.222E-01
-15.940  0.333E-01  0.133E-03  0.675E-02  0.264E-01
-15.920  0.367E-01  0.159E-03  0.546E-02  0.311E-01
-15.900  0.406E-01  0.189E-03  0.422E-02  0.362E-01
-15.880  0.449E-01  0.223E-03  0.308E-02  0.416E-01
-15.860  0.497E-01  0.259E-03  0.210E-02  0.474E-01
-15.840  0.551E-01  0.298E-03  0.133E-02  0.534E-01
-15.820  0.609E-01  0.340E-03  0.845E-03  0.598E-01
-15.800  0.673E-01  0.385E-03  0.700E-03  0.662E-01
-15.780  0.742E-01  0.431E-03  0.959E-03  0.728E-01
-15.760  0.816E-01  0.480E-03  0.169E-02  0.795E-01
-15.740  0.895E-01  0.529E-03  0.294E-02  0.861E-01
-15.720  0.979E-01  0.579E-03  0.478E-02  0.925E-01
-15.700  0.107E+00  0.628E-03  0.725E-02  0.987E-01
-15.680  0.116E+00  0.676E-03  0.104E-01  0.105E+00
-15.660  0.125E+00  0.721E-03  0.142E-01  0.110E+00
-15.640  0.134E+00  0.763E-03  0.188E-01  0.115E+00
-15.620  0.144E+00  0.800E-03  0.240E-01  0.119E+00
-15.600  0.153E+00  0.832E-03  0.300E-01  0.122E+00
-15.580  0.162E+00  0.858E-03  0.366E-01  0.125E+00
-15.560  0.171E+00  0.876E-03  0.437E-01  0.126E+00
-15.540  0.179E+00  0.887E-03  0.514E-01  0.127E+00
-15.520  0.187E+00  0.890E-03  0.594E-01  0.127E+00
-15.500  0.194E+00  0.885E-03  0.677E-01  0.125E+00
-15.480  0.200E+00  0.872E-03  0.760E-01  0.123E+00
-15.460  0.206E+00  0.851E-03  0.844E-01  0.120E+00
-15.440  0.210E+00  0.824E-03  0.926E-01  0.117E+00
-15.420  0.214E+00  0.791E-03  0.100E+00  0.113E+00
-15.400  0.217E+00  0.752E-03  0.108E+00  0.108E+00
-15.380  0.218E+00  0.710E-03  0.115E+00  0.103E+00
-15.360  0.219E+00  0.665E-03  0.121E+00  0.981E-01
-15.340  0.219E+00  0.619E-03  0.126E+00  0.929E-01
-15.320  0.219E+00  0.572E-03  0.130E+00  0.878E-01
-15.300  0.217E+00  0.526E-03  0.134E+00  0.829E-01
-15.280  0.215E+00  0.482E-03  0.136E+00  0.782E-01
-15.260  0.212E+00  0.440E-03  0.137E+00  0.739E-01
-15.240  0.208E+00  0.401E-03  0.137E+00  0.699E-01
-15.220  0.203E+00  0.365E-03  0.137E+00  0.664E-01
-15.200  0.199E+00  0.334E-03  0.135E+00  0.633E-01
-15.180  0.193E+00  0.306E-03  0.132E+00  0.608E-01
-15.160  0.187E+00  0.282E-03  0.128E+00  0.587E-01
-15.140  0.181E+00  0.262E-03  0.124E+00  0.571E-01
-15.120  0.175E+00  0.246E-03  0.119E+00  0.559E-01
-15.100  0.169E+00  0.234E-03  0.114E+00  0.553E-01
-15.080  0.163E+00  0.225E-03  0.108E+00  0.550E-01
-15.060  0.157E+00  0.219E-03  0.102E+00  0.552E-01
-15.040  0.151E+00  0.216E-03  0.954E-01  0.558E-01
-15.020  0.146E+00  0.216E-03  0.892E-01  0.568E-01
-15.000  0.142E+00  0.219E-03  0.834E-01  0.580E-01
-14.980  0.138E+00  0.224E-03  0.778E-01  0.596E-01
-14.960  0.134E+00  0.231E-03  0.727E-01  0.613E-01
-14.940  0.132E+00  0.240E-03  0.681E-01  0.632E-01
-14.920  0.130E+00  0.250E-03  0.642E-01  0.652E-01
-14.900  0.128E+00  0.263E-03  0.609E-01  0.673E-01
-14.880  0.128E+00  0.276E-03  0.582E-01  0.693E-01
-14.860  0.128E+00  0.291E-03  0.563E-01  0.712E-01
-14.840  0.128E+00  0.307E-03  0.549E-01  0.730E-01
-14.820  0.129E+00  0.324E-03  0.542E-01  0.745E-01
-14.800  0.130E+00  0.341E-03  0.541E-01  0.758E-01
-14.780  0.132E+00  0.359E-03  0.546E-01  0.769E-01
-14.760  0.134E+00  0.378E-03  0.556E-01  0.776E-01
-14.740  0.136E+00  0.396E-03  0.571E-01  0.781E-01
-14.720  0.138E+00  0.415E-03  0.591E-01  0.782E-01
-14.700  0.140E+00  0.433E-03  0.616E-01  0.781E-01
-14.680  0.143E+00  0.450E-03  0.644E-01  0.777E-01
-14.660  0.145E+00  0.467E-03  0.676E-01  0.772E-01
-14.640  0.148E+00  0.483E-03  0.712E-01  0.764E-01
-14.620  0.151E+00  0.497E-03  0.750E-01  0.755E-01
-14.600  0.154E+00  0.510E-03  0.789E-01  0.744E-01
-14.580  0.157E+00  0.521E-03  0.830E-01  0.733E-01
-14.560  0.160E+00  0.529E-03  0.870E-01  0.721E-01
-14.540  0.162E+00  0.535E-03  0.908E-01  0.708E-01
-14.520  0.164E+00  0.538E-03  0.943E-01  0.694E-01
-14.500  0.166E+00  0.538E-03  0.974E-01  0.679E-01
-14.480  0.167E+00  0.535E-03  0.998E-01  0.664E-01
-14.460  0.167E+00  0.529E-03  0.101E+00  0.648E-01
-14.440  0.166E+00  0.519E-03  0.102E+00  0.630E-01
-14.420  0.163E+00  0.505E-03  0.102E+00  0.611E-01
-14.400  0.160E+00  0.489E-03  0.100E+00  0.591E-01
-14.380  0.155E+00  0.470E-03  0.980E-01  0.570E-01
-14.360  0.150E+00  0.448E-03  0.944E-01  0.548E-01
-14.340  0.143E+00  0.423E-03  0.899E-01  0.525E-01
-14.320  0.135E+00  0.398E-03  0.844E-01  0.501E-01
-14.300  0.126E+00  0.371E-03  0.781E-01  0.477E-01
-14.280  0.117E+00  0.343E-03  0.712E-01  0.454E-01
-14.260  0.107E+00  0.315E-03  0.639E-01  0.431E-01
-14.240  0.975E-01  0.288E-03  0.563E-01  0.409E-01
-14.220  0.878E-01  0.262E-03  0.487E-01  0.388E-01
-14.200  0.784E-01  0.237E-03  0.413E-01  0.369E-01
-14.180  0.695E-01  0.214E-03  0.342E-01  0.351E-01
-14.160  0.613E-01  0.193E-03  0.275E-01  0.336E-01
-14.140  0.539E-01  0.174E-03  0.214E-01  0.323E-01
-14.120  0.474E-01  0.157E-03  0.160E-01  0.313E-01
-14.100  0.417E-01  0.143E-03  0.112E-01  0.304E-01
-14.080  0.370E-01  0.130E-03  0.707E-02  0.298E-01
-14.060  0.331E-01  0.120E-03  0.366E-02  0.293E-01
-14.040  0.300E-01  0.112E-03  0.880E-03  0.290E-01
-14.020  0.277E-01  0.106E-03 -0.131E-02  0.289E-01
-14.000  0.260E-01  0.101E-03 -0.297E-02  0.289E-01
-13.980  0.249E-01  0.974E-04 -0.416E-02  0.290E-01
-13.960  0.243E-01  0.951E-04 -0.494E-02  0.291E-01
-13.940  0.241E-01  0.936E-04 -0.536E-02  0.294E-01
-13.920  0.243E-01  0.929E-04 -0.544E-02  0.297E-01
-13.900  0.249E-01  0.928E-04 -0.522E-02  0.300E-01
-13.880  0.258E-01  0.931E-04 -0.468E-02  0.304E-01
-13.860  0.271E-01  0.938E-04 -0.383E-02  0.309E-01
-13.840  0.288E-01  0.947E-04 -0.264E-02  0.314E-01
-13.820  0.310E-01  0.957E-04 -0.107E-02  0.320E-01
-13.800  0.336E-01  0.969E-04  0.902E-03  0.326E-01
-13.780  0.368E-01  0.981E-04  0.332E-02  0.333E-01
-13.760  0.405E-01  0.993E-04  0.620E-02  0.342E-01
-13.740  0.447E-01  0.100E-03  0.957E-02  0.351E-01
-13.720  0.496E-01  0.101E-03  0.134E-01  0.361E-01
-13.700  0.550E-01  0.102E-03  0.177E-01  0.372E-01
-13.680  0.610E-01  0.102E-03  0.225E-01  0.384E-01
-13.660  0.674E-01  0.102E-03  0.276E-01  0.397E-01
-13.640  0.742E-01  0.102E-03  0.330E-01  0.411E-01
-13.620  0.812E-01  0.100E-03  0.385E-01  0.425E-01
-13.600  0.883E-01  0.976E-04  0.442E-01  0.440E-01
-13.580  0.954E-01  0.943E-04  0.498E-01  0.456E-01
-13.560  0.102E+00  0.902E-04  0.552E-01  0.471E-01
-13.540  0.109E+00  0.853E-04  0.604E-01  0.486E-01
-13.520  0.115E+00  0.799E-04  0.652E-01  0.500E-01
-13.500  0.121E+00  0.743E-04  0.696E-01  0.514E-01
-13.480  0.126E+00  0.692E-04  0.735E-01  0.528E-01
-13.460  0.131E+00  0.652E-04  0.769E-01  0.540E-01
-13.440  0.135E+00  0.633E-04  0.798E-01  0.551E-01
-13.420  0.138E+00  0.647E-04  0.823E-01  0.561E-01
-13.400  0.141E+00  0.706E-04  0.844E-01  0.569E-01
-13.380  0.144E+00  0.825E-04  0.863E-01  0.577E-01
-13.360  0.147E+00  0.102E-03  0.880E-01  0.585E-01
-13.340  0.149E+00  0.131E-03  0.897E-01  0.592E-01
-13.320  0.152E+00  0.170E-03  0.915E-01  0.599E-01
-13.300  0.154E+00  0.221E-03  0.935E-01  0.607E-01
-13.280  0.158E+00  0.286E-03  0.959E-01  0.617E-01
-13.260  0.162E+00  0.363E-03  0.987E-01  0.628E-01
-13.240  0.166E+00  0.454E-03  0.102E+00  0.641E-01
-13.220  0.172E+00  0.558E-03  0.106E+00  0.656E-01
-13.200  0.178E+00  0.674E-03  0.110E+00  0.674E-01
-13.180  0.184E+00  0.799E-03  0.114E+00  0.693E-01
-13.160  0.191E+00  0.930E-03  0.119E+00  0.715E-01
-13.140  0.199E+00  0.107E-02  0.124E+00  0.738E-01
-13.120  0.206E+00  0.120E-02  0.129E+00  0.760E-01
-13.100  0.213E+00  0.133E-02  0.133E+00  0.782E-01
-13.080  0.218E+00  0.145E-02  0.137E+00  0.802E-01
-13.060  0.223E+00  0.155E-02  0.140E+00  0.819E-01
-13.040  0.226E+00  0.164E-02  0.142E+00  0.831E-01
-13.020  0.228E+00  0.171E-02  0.142E+00  0.837E-01
-13.000  0.227E+00  0.175E-02  0.142E+00  0.836E-01
-12.980  0.224E+00  0.176E-02  0.140E+00  0.828E-01
-12.960  0.219E+00  0.175E-02  0.136E+00  0.812E-01
-12.940  0.212E+00  0.171E-02  0.131E+00  0.789E-01
-12.920  0.203E+00  0.165E-02  0.125E+00  0.759E-01
-12.900  0.191E+00  0.156E-02  0.118E+00  0.722E-01
-12.880  0.179E+00  0.145E-02  0.109E+00  0.681E-01
-12.860  0.166E+00  0.133E-02  0.101E+00  0.637E-01
-12.840  0.152E+00  0.120E-02  0.915E-01  0.592E-01
-12.820  0.138E+00  0.106E-02  0.824E-01  0.547E-01
-12.800  0.125E+00  0.918E-03  0.737E-01  0.506E-01
-12.780  0.113E+00  0.781E-03  0.657E-01  0.470E-01
-12.760  0.103E+00  0.650E-03  0.586E-01  0.442E-01
-12.740  0.956E-01  0.531E-03  0.528E-01  0.422E-01
-12.720  0.902E-01  0.425E-03  0.484E-01  0.413E-01
-12.700  0.875E-01  0.335E-03  0.455E-01  0.416E-01
-12.680  0.877E-01  0.262E-03  0.443E-01  0.431E-01
-12.660  0.908E-01  0.207E-03  0.447E-01  0.459E-01
-12.640  0.968E-01  0.170E-03  0.466E-01  0.499E-01
-12.620  0.105E+00  0.149E-03  0.501E-01  0.551E-01
-12.600  0.116E+00  0.144E-03  0.548E-01  0.613E-01
-12.580  0.129E+00  0.153E-03  0.605E-01  0.684E-01
-12.560  0.143E+00  0.173E-03  0.672E-01  0.761E-01
-12.540  0.159E+00  0.203E-03  0.743E-01  0.842E-01
-12.520  0.175E+00  0.239E-03  0.818E-01  0.926E-01
-12.500  0.190E+00  0.281E-03  0.893E-01  0.101E+00
-12.480  0.206E+00  0.324E-03  0.965E-01  0.109E+00
-12.460  0.220E+00  0.368E-03  0.103E+00  0.116E+00
-12.440  0.232E+00  0.410E-03  0.109E+00  0.123E+00
-12.420  0.243E+00  0.449E-03  0.114E+00  0.128E+00
-12.400  0.251E+00  0.484E-03  0.118E+00  0.133E+00
-12.380  0.257E+00  0.513E-03  0.121E+00  0.136E+00
-12.360  0.261E+00  0.535E-03  0.123E+00  0.138E+00
-12.340  0.262E+00  0.552E-03  0.123E+00  0.138E+00
-12.320  0.260E+00  0.562E-03  0.122E+00  0.138E+00
-12.300  0.257E+00  0.566E-03  0.120E+00  0.136E+00
-12.280  0.251E+00  0.565E-03  0.117E+00  0.133E+00
-12.260  0.244E+00  0.560E-03  0.114E+00  0.129E+00
-12.240  0.235E+00  0.552E-03  0.109E+00  0.125E+00
-12.220  0.225E+00  0.543E-03  0.104E+00  0.120E+00
-12.200  0.215E+00  0.533E-03  0.993E-01  0.115E+00
-12.180  0.205E+00  0.524E-03  0.940E-01  0.111E+00
-12.160  0.195E+00  0.517E-03  0.888E-01  0.106E+00
-12.140  0.186E+00  0.514E-03  0.838E-01  0.102E+00
-12.120  0.179E+00  0.515E-03  0.792E-01  0.988E-01
-12.100  0.172E+00  0.520E-03  0.751E-01  0.963E-01
-12.080  0.167E+00  0.531E-03  0.717E-01  0.947E-01
-12.060  0.163E+00  0.547E-03  0.688E-01  0.940E-01
-12.040  0.161E+00  0.568E-03  0.667E-01  0.941E-01
-12.020  0.161E+00  0.594E-03  0.652E-01  0.951E-01
-12.000  0.162E+00  0.623E-03  0.644E-01  0.966E-01
-11.980  0.163E+00  0.656E-03  0.641E-01  0.987E-01
-11.960  0.166E+00  0.691E-03  0.643E-01  0.101E+00
-11.940  0.169E+00  0.727E-03  0.648E-01  0.103E+00
-11.920  0.172E+00  0.763E-03  0.657E-01  0.106E+00
-11.900  0.175E+00  0.798E-03  0.667E-01  0.107E+00
-11.880  0.177E+00  0.832E-03  0.678E-01  0.109E+00
-11.860  0.179E+00  0.864E-03  0.689E-01  0.109E+00
-11.840  0.180E+00  0.894E-03  0.699E-01  0.109E+00
-11.820  0.180E+00  0.921E-03  0.708E-01  0.108E+00
-11.800  0.178E+00  0.946E-03  0.715E-01  0.106E+00
-11.780  0.176E+00  0.969E-03  0.720E-01  0.103E+00
-11.760  0.173E+00  0.991E-03  0.723E-01  0.999E-01
-11.740  0.169E+00  0.101E-02  0.723E-01  0.960E-01
-11.720  0.165E+00  0.103E-02  0.721E-01  0.917E-01
-11.700  0.160E+00  0.106E-02  0.717E-01  0.872E-01
-11.680  0.155E+00  0.108E-02  0.710E-01  0.827E-01
-11.660  0.149E+00  0.111E-02  0.701E-01  0.783E-01
-11.640  0.144E+00  0.114E-02  0.689E-01  0.741E-01
-11.620  0.139E+00  0.117E-02  0.676E-01  0.704E-01
-11.600  0.134E+00  0.121E-02  0.660E-01  0.672E-01
-11.580  0.130E+00  0.125E-02  0.643E-01  0.645E-01
-11.560  0.126E+00  0.130E-02  0.623E-01  0.624E-01
-11.540  0.122E+00  0.135E-02  0.602E-01  0.608E-01
-11.520  0.119E+00  0.141E-02  0.579E-01  0.598E-01
-11.500  0.116E+00  0.147E-02  0.556E-01  0.593E-01
-11.480  0.114E+00  0.152E-02  0.531E-01  0.593E-01
-11.460  0.112E+00  0.158E-02  0.507E-01  0.597E-01
-11.440  0.110E+00  0.163E-02  0.483E-01  0.604E-01
-11.420  0.109E+00  0.168E-02  0.460E-01  0.614E-01
-11.400  0.108E+00  0.172E-02  0.439E-01  0.626E-01
-11.380  0.108E+00  0.175E-02  0.420E-01  0.639E-01
-11.360  0.107E+00  0.177E-02  0.403E-01  0.653E-01
-11.340  0.107E+00  0.178E-02  0.388E-01  0.667E-01
-11.320  0.108E+00  0.178E-02  0.377E-01  0.681E-01
-11.300  0.108E+00  0.176E-02  0.369E-01  0.695E-01
-11.280  0.109E+00  0.172E-02  0.364E-01  0.708E-01
-11.260  0.110E+00  0.167E-02  0.361E-01  0.719E-01
-11.240  0.111E+00  0.162E-02  0.362E-01  0.730E-01
-11.220  0.112E+00  0.155E-02  0.366E-01  0.739E-01
-11.200  0.113E+00  0.147E-02  0.372E-01  0.747E-01
-11.180  0.115E+00  0.139E-02  0.380E-01  0.754E-01
-11.160  0.116E+00  0.131E-02  0.390E-01  0.761E-01
-11.140  0.118E+00  0.123E-02  0.402E-01  0.767E-01
-11.120  0.120E+00  0.116E-02  0.415E-01  0.773E-01
-11.100  0.122E+00  0.110E-02  0.429E-01  0.780E-01
-11.080  0.124E+00  0.105E-02  0.444E-01  0.789E-01
-11.060  0.127E+00  0.102E-02  0.459E-01  0.800E-01
-11.040  0.130E+00  0.101E-02  0.476E-01  0.813E-01
-11.020  0.133E+00  0.101E-02  0.492E-01  0.830E-01
-11.000  0.137E+00  0.103E-02  0.510E-01  0.850E-01
-10.980  0.141E+00  0.106E-02  0.528E-01  0.873E-01
-10.960  0.146E+00  0.111E-02  0.547E-01  0.901E-01
-10.940  0.151E+00  0.116E-02  0.566E-01  0.932E-01
-10.920  0.156E+00  0.122E-02  0.586E-01  0.967E-01
-10.900  0.162E+00  0.128E-02  0.606E-01  0.100E+00
-10.880  0.169E+00  0.132E-02  0.627E-01  0.105E+00
-10.860  0.175E+00  0.135E-02  0.648E-01  0.109E+00
-10.840  0.182E+00  0.135E-02  0.669E-01  0.113E+00
-10.820  0.188E+00  0.130E-02  0.690E-01  0.118E+00
-10.800  0.195E+00  0.121E-02  0.710E-01  0.123E+00
-10.780  0.201E+00  0.105E-02  0.728E-01  0.127E+00
-10.760  0.207E+00  0.812E-03  0.745E-01  0.132E+00
-10.740  0.213E+00  0.484E-03  0.760E-01  0.136E+00
-10.720  0.218E+00  0.546E-04  0.772E-01  0.140E+00
-10.700  0.222E+00 -0.482E-03  0.782E-01  0.144E+00
-10.680  0.226E+00 -0.113E-02  0.790E-01  0.148E+00
-10.660  0.228E+00 -0.187E-02  0.795E-01  0.151E+00
-10.640  0.230E+00 -0.270E-02  0.799E-01  0.153E+00
-10.620  0.231E+00 -0.357E-02  0.801E-01  0.154E+00
-10.600  0.231E+00 -0.443E-02  0.802E-01  0.155E+00
-10.580  0.231E+00 -0.521E-02  0.804E-01  0.155E+00
-10.560  0.230E+00 -0.579E-02  0.806E-01  0.155E+00
-10.540  0.228E+00 -0.603E-02  0.810E-01  0.153E+00
-10.520  0.227E+00 -0.578E-02  0.817E-01  0.151E+00
-10.500  0.226E+00 -0.484E-02  0.827E-01  0.148E+00
-10.480  0.226E+00 -0.298E-02  0.840E-01  0.145E+00
-10.460  0.226E+00  0.393E-04  0.856E-01  0.141E+00
-10.440  0.228E+00  0.446E-02  0.876E-01  0.136E+00
-10.420  0.232E+00  0.105E-01  0.899E-01  0.132E+00
-10.400  0.238E+00  0.185E-01  0.924E-01  0.127E+00
-10.380  0.246E+00  0.285E-01  0.951E-01  0.123E+00
-10.360  0.257E+00  0.407E-01  0.978E-01  0.119E+00
-10.340  0.271E+00  0.551E-01  0.100E+00  0.116E+00
-10.320  0.287E+00  0.717E-01  0.103E+00  0.113E+00
-10.300  0.306E+00  0.904E-01  0.105E+00  0.111E+00
-10.280  0.326E+00  0.111E+00  0.106E+00  0.109E+00
-10.260  0.348E+00  0.133E+00  0.107E+00  0.108E+00
-10.240  0.372E+00  0.155E+00  0.108E+00  0.108E+00
-10.220  0.395E+00  0.179E+00  0.108E+00  0.109E+00
-10.200  0.418E+00  0.201E+00  0.107E+00  0.109E+00
-10.180  0.439E+00  0.223E+00  0.106E+00  0.111E+00
-10.160  0.459E+00  0.243E+00  0.104E+00  0.112E+00
-10.140  0.475E+00  0.261E+00  0.101E+00  0.113E+00
-10.120  0.489E+00  0.276E+00  0.985E-01  0.114E+00
-10.100  0.499E+00  0.288E+00  0.957E-01  0.115E+00
-10.080  0.505E+00  0.296E+00  0.929E-01  0.116E+00
-10.060  0.507E+00  0.300E+00  0.904E-01  0.117E+00
-10.040  0.506E+00  0.300E+00  0.884E-01  0.118E+00
-10.020  0.502E+00  0.297E+00  0.870E-01  0.119E+00
-10.000  0.495E+00  0.289E+00  0.866E-01  0.119E+00
 -9.980  0.487E+00  0.279E+00  0.872E-01  0.121E+00
 -9.960  0.478E+00  0.267E+00  0.890E-01  0.122E+00
 -9.940  0.469E+00  0.252E+00  0.921E-01  0.125E+00
 -9.920  0.461E+00  0.236E+00  0.967E-01  0.128E+00
 -9.900  0.455E+00  0.220E+00  0.103E+00  0.132E+00
 -9.880  0.451E+00  0.204E+00  0.111E+00  0.137E+00
 -9.860  0.450E+00  0.188E+00  0.120E+00  0.142E+00
 -9.840  0.453E+00  0.173E+00  0.130E+00  0.149E+00
 -9.820  0.459E+00  0.160E+00  0.142E+00  0.157E+00
 -9.800  0.469E+00  0.148E+00  0.155E+00  0.165E+00
 -9.780  0.482E+00  0.139E+00  0.169E+00  0.174E+00
 -9.760  0.498E+00  0.131E+00  0.184E+00  0.183E+00
 -9.740  0.515E+00  0.125E+00  0.199E+00  0.192E+00
 -9.720  0.535E+00  0.120E+00  0.215E+00  0.200E+00
 -9.700  0.555E+00  0.117E+00  0.230E+00  0.208E+00
 -9.680  0.574E+00  0.115E+00  0.244E+00  0.215E+00
 -9.660  0.593E+00  0.113E+00  0.258E+00  0.221E+00
 -9.640  0.609E+00  0.113E+00  0.270E+00  0.226E+00
 -9.620  0.623E+00  0.113E+00  0.281E+00  0.229E+00
 -9.600  0.633E+00  0.113E+00  0.290E+00  0.230E+00
 -9.580  0.639E+00  0.113E+00  0.297E+00  0.230E+00
 -9.560  0.642E+00  0.113E+00  0.301E+00  0.228E+00
 -9.540  0.641E+00  0.112E+00  0.303E+00  0.225E+00
 -9.520  0.636E+00  0.112E+00  0.303E+00  0.220E+00
 -9.500  0.627E+00  0.112E+00  0.301E+00  0.214E+00
 -9.480  0.615E+00  0.111E+00  0.296E+00  0.208E+00
 -9.460  0.600E+00  0.110E+00  0.289E+00  0.200E+00
 -9.440  0.583E+00  0.109E+00  0.281E+00  0.193E+00
 -9.420  0.564E+00  0.108E+00  0.270E+00  0.186E+00
 -9.400  0.545E+00  0.107E+00  0.259E+00  0.179E+00
 -9.380  0.526E+00  0.107E+00  0.246E+00  0.173E+00
 -9.360  0.507E+00  0.106E+00  0.233E+00  0.168E+00
 -9.340  0.489E+00  0.106E+00  0.219E+00  0.163E+00
 -9.320  0.472E+00  0.106E+00  0.205E+00  0.160E+00
 -9.300  0.456E+00  0.107E+00  0.192E+00  0.157E+00
 -9.280  0.442E+00  0.107E+00  0.179E+00  0.156E+00
 -9.260  0.431E+00  0.108E+00  0.168E+00  0.155E+00
 -9.240  0.421E+00  0.109E+00  0.157E+00  0.154E+00
 -9.220  0.412E+00  0.110E+00  0.148E+00  0.154E+00
 -9.200  0.406E+00  0.111E+00  0.141E+00  0.154E+00
 -9.180  0.400E+00  0.112E+00  0.135E+00  0.153E+00
 -9.160  0.396E+00  0.113E+00  0.130E+00  0.152E+00
 -9.140  0.393E+00  0.114E+00  0.128E+00  0.150E+00
 -9.120  0.390E+00  0.115E+00  0.127E+00  0.148E+00
 -9.100  0.388E+00  0.116E+00  0.127E+00  0.144E+00
 -9.080  0.385E+00  0.116E+00  0.129E+00  0.140E+00
 -9.060  0.383E+00  0.117E+00  0.132E+00  0.134E+00
 -9.040  0.381E+00  0.117E+00  0.135E+00  0.128E+00
 -9.020  0.377E+00  0.117E+00  0.139E+00  0.121E+00
 -9.000  0.374E+00  0.117E+00  0.144E+00  0.113E+00
 -8.980  0.370E+00  0.117E+00  0.148E+00  0.105E+00
 -8.960  0.365E+00  0.117E+00  0.151E+00  0.970E-01
 -8.940  0.360E+00  0.116E+00  0.154E+00  0.888E-01
 -8.920  0.354E+00  0.116E+00  0.157E+00  0.810E-01
 -8.900  0.347E+00  0.115E+00  0.158E+00  0.736E-01
 -8.880  0.340E+00  0.115E+00  0.159E+00  0.668E-01
 -8.860  0.333E+00  0.114E+00  0.158E+00  0.609E-01
 -8.840  0.326E+00  0.113E+00  0.157E+00  0.558E-01
 -8.820  0.318E+00  0.112E+00  0.154E+00  0.517E-01
 -8.800  0.311E+00  0.111E+00  0.151E+00  0.485E-01
 -8.780  0.304E+00  0.110E+00  0.147E+00  0.464E-01
 -8.760  0.298E+00  0.109E+00  0.143E+00  0.452E-01
 -8.740  0.292E+00  0.109E+00  0.139E+00  0.449E-01
 -8.720  0.287E+00  0.108E+00  0.134E+00  0.456E-01
 -8.700  0.283E+00  0.107E+00  0.129E+00  0.471E-01
 -8.680  0.280E+00  0.106E+00  0.125E+00  0.493E-01
 -8.660  0.278E+00  0.106E+00  0.120E+00  0.523E-01
 -8.640  0.278E+00  0.106E+00  0.116E+00  0.560E-01
 -8.620  0.278E+00  0.105E+00  0.112E+00  0.602E-01
 -8.600  0.279E+00  0.106E+00  0.109E+00  0.650E-01
 -8.580  0.281E+00  0.106E+00  0.106E+00  0.701E-01
 -8.560  0.284E+00  0.106E+00  0.103E+00  0.756E-01
 -8.540  0.288E+00  0.106E+00  0.999E-01  0.813E-01
 -8.520  0.291E+00  0.107E+00  0.973E-01  0.871E-01
 -8.500  0.295E+00  0.107E+00  0.949E-01  0.929E-01
 -8.480  0.298E+00  0.107E+00  0.926E-01  0.985E-01
 -8.460  0.301E+00  0.107E+00  0.904E-01  0.104E+00
 -8.440  0.303E+00  0.106E+00  0.883E-01  0.109E+00
 -8.420  0.305E+00  0.106E+00  0.864E-01  0.113E+00
 -8.400  0.306E+00  0.105E+00  0.847E-01  0.117E+00
 -8.380  0.307E+00  0.104E+00  0.833E-01  0.120E+00
 -8.360  0.307E+00  0.102E+00  0.823E-01  0.123E+00
 -8.340  0.307E+00  0.101E+00  0.818E-01  0.124E+00
 -8.320  0.306E+00  0.989E-01  0.818E-01  0.125E+00
 -8.300  0.305E+00  0.971E-01  0.825E-01  0.126E+00
 -8.280  0.305E+00  0.952E-01  0.839E-01  0.125E+00
 -8.260  0.304E+00  0.933E-01  0.859E-01  0.125E+00
 -8.240  0.303E+00  0.915E-01  0.887E-01  0.123E+00
 -8.220  0.303E+00  0.897E-01  0.922E-01  0.121E+00
 -8.200  0.302E+00  0.880E-01  0.963E-01  0.118E+00
 -8.180  0.302E+00  0.863E-01  0.101E+00  0.115E+00
 -8.160  0.302E+00  0.847E-01  0.106E+00  0.111E+00
 -8.140  0.301E+00  0.832E-01  0.111E+00  0.107E+00
 -8.120  0.300E+00  0.816E-01  0.116E+00  0.102E+00
 -8.100  0.299E+00  0.800E-01  0.121E+00  0.975E-01
 -8.080  0.297E+00  0.784E-01  0.126E+00  0.923E-01
 -8.060  0.294E+00  0.768E-01  0.130E+00  0.870E-01
 -8.040  0.291E+00  0.750E-01  0.134E+00  0.815E-01
 -8.020  0.287E+00  0.732E-01  0.137E+00  0.761E-01
 -8.000  0.282E+00  0.713E-01  0.140E+00  0.706E-01
 -7.980  0.276E+00  0.694E-01  0.141E+00  0.654E-01
 -7.960  0.270E+00  0.675E-01  0.142E+00  0.604E-01
 -7.940  0.262E+00  0.656E-01  0.141E+00  0.556E-01
 -7.920  0.255E+00  0.638E-01  0.140E+00  0.513E-01
 -7.900  0.247E+00  0.621E-01  0.138E+00  0.473E-01
 -7.880  0.239E+00  0.606E-01  0.134E+00  0.438E-01
 -7.860  0.230E+00  0.592E-01  0.131E+00  0.406E-01
 -7.840  0.222E+00  0.581E-01  0.126E+00  0.380E-01
 -7.820  0.214E+00  0.572E-01  0.121E+00  0.357E-01
 -7.800  0.206E+00  0.565E-01  0.116E+00  0.338E-01
 -7.780  0.198E+00  0.561E-01  0.110E+00  0.322E-01
 -7.760  0.191E+00  0.559E-01  0.104E+00  0.309E-01
 -7.740  0.184E+00  0.559E-01  0.984E-01  0.300E-01
 -7.720  0.178E+00  0.560E-01  0.927E-01  0.293E-01
 -7.700  0.172E+00  0.562E-01  0.872E-01  0.288E-01
 -7.680  0.167E+00  0.564E-01  0.819E-01  0.286E-01
 -7.660  0.162E+00  0.567E-01  0.770E-01  0.286E-01
 -7.640  0.158E+00  0.570E-01  0.724E-01  0.288E-01
 -7.620  0.155E+00  0.573E-01  0.681E-01  0.293E-01
 -7.600  0.152E+00  0.578E-01  0.641E-01  0.299E-01
 -7.580  0.150E+00  0.584E-01  0.605E-01  0.308E-01
 -7.560  0.148E+00  0.593E-01  0.572E-01  0.320E-01
 -7.540  0.148E+00  0.607E-01  0.541E-01  0.333E-01
 -7.520  0.149E+00  0.629E-01  0.513E-01  0.349E-01
 -7.500  0.151E+00  0.660E-01  0.488E-01  0.367E-01
 -7.480  0.156E+00  0.705E-01  0.465E-01  0.386E-01
 -7.460  0.162E+00  0.766E-01  0.445E-01  0.408E-01
 -7.440  0.171E+00  0.847E-01  0.427E-01  0.432E-01
 -7.420  0.182E+00  0.950E-01  0.411E-01  0.458E-01
 -7.400  0.196E+00  0.108E+00  0.399E-01  0.485E-01
 -7.380  0.214E+00  0.124E+00  0.389E-01  0.514E-01
 -7.360  0.235E+00  0.142E+00  0.382E-01  0.545E-01
 -7.340  0.259E+00  0.163E+00  0.378E-01  0.578E-01
 -7.320  0.287E+00  0.188E+00  0.378E-01  0.611E-01
 -7.300  0.317E+00  0.214E+00  0.380E-01  0.647E-01
 -7.280  0.350E+00  0.243E+00  0.386E-01  0.683E-01
 -7.260  0.384E+00  0.273E+00  0.394E-01  0.719E-01
 -7.240  0.420E+00  0.304E+00  0.405E-01  0.755E-01
 -7.220  0.456E+00  0.335E+00  0.418E-01  0.791E-01
 -7.200  0.491E+00  0.365E+00  0.434E-01  0.824E-01
 -7.180  0.524E+00  0.394E+00  0.451E-01  0.856E-01
 -7.160  0.555E+00  0.419E+00  0.469E-01  0.883E-01
 -7.140  0.581E+00  0.442E+00  0.489E-01  0.907E-01
 -7.120  0.604E+00  0.460E+00  0.510E-01  0.925E-01
 -7.100  0.620E+00  0.473E+00  0.532E-01  0.939E-01
 -7.080  0.632E+00  0.482E+00  0.554E-01  0.946E-01
 -7.060  0.637E+00  0.485E+00  0.577E-01  0.948E-01
 -7.040  0.637E+00  0.482E+00  0.599E-01  0.946E-01
 -7.020  0.630E+00  0.474E+00  0.621E-01  0.939E-01
 -7.000  0.619E+00  0.462E+00  0.642E-01  0.930E-01
 -6.980  0.603E+00  0.445E+00  0.661E-01  0.919E-01
 -6.960  0.583E+00  0.424E+00  0.679E-01  0.910E-01
 -6.940  0.561E+00  0.401E+00  0.693E-01  0.902E-01
 -6.920  0.536E+00  0.376E+00  0.705E-01  0.899E-01
 -6.900  0.510E+00  0.349E+00  0.714E-01  0.901E-01
 -6.880  0.485E+00  0.322E+00  0.718E-01  0.909E-01
 -6.860  0.460E+00  0.296E+00  0.719E-01  0.924E-01
 -6.840  0.437E+00  0.270E+00  0.715E-01  0.946E-01
 -6.820  0.415E+00  0.247E+00  0.709E-01  0.974E-01
 -6.800  0.396E+00  0.225E+00  0.699E-01  0.101E+00
 -6.780  0.379E+00  0.206E+00  0.686E-01  0.104E+00
 -6.760  0.364E+00  0.189E+00  0.672E-01  0.108E+00
 -6.740  0.352E+00  0.175E+00  0.657E-01  0.111E+00
 -6.720  0.341E+00  0.163E+00  0.643E-01  0.114E+00
 -6.700  0.332E+00  0.154E+00  0.631E-01  0.116E+00
 -6.680  0.325E+00  0.146E+00  0.621E-01  0.117E+00
 -6.660  0.317E+00  0.140E+00  0.615E-01  0.116E+00
 -6.640  0.311E+00  0.135E+00  0.613E-01  0.115E+00
 -6.620  0.304E+00  0.131E+00  0.615E-01  0.111E+00
 -6.600  0.297E+00  0.128E+00  0.621E-01  0.107E+00
 -6.580  0.289E+00  0.125E+00  0.631E-01  0.101E+00
 -6.560  0.280E+00  0.122E+00  0.645E-01  0.940E-01
 -6.540  0.271E+00  0.119E+00  0.661E-01  0.860E-01
 -6.520  0.261E+00  0.116E+00  0.677E-01  0.773E-01
 -6.500  0.250E+00  0.113E+00  0.693E-01  0.681E-01
 -6.480  0.239E+00  0.110E+00  0.707E-01  0.587E-01
 -6.460  0.228E+00  0.107E+00  0.717E-01  0.495E-01
 -6.440  0.217E+00  0.104E+00  0.721E-01  0.406E-01
 -6.420  0.206E+00  0.102E+00  0.720E-01  0.322E-01
 -6.400  0.196E+00  0.100E+00  0.711E-01  0.246E-01
 -6.380  0.187E+00  0.996E-01  0.694E-01  0.178E-01
 -6.360  0.179E+00  0.998E-01  0.669E-01  0.120E-01
 -6.340  0.172E+00  0.101E+00  0.637E-01  0.710E-02
 -6.320  0.167E+00  0.104E+00  0.598E-01  0.314E-02
 -6.300  0.163E+00  0.108E+00  0.553E-01  0.450E-04
 -6.280  0.161E+00  0.113E+00  0.503E-01 -0.225E-02
 -6.260  0.161E+00  0.120E+00  0.449E-01 -0.383E-02
 -6.240  0.162E+00  0.128E+00  0.394E-01 -0.483E-02
 -6.220  0.165E+00  0.137E+00  0.339E-01 -0.533E-02
 -6.200  0.169E+00  0.146E+00  0.285E-01 -0.545E-02
 -6.180  0.174E+00  0.156E+00  0.233E-01 -0.529E-02
 -6.160  0.180E+00  0.167E+00  0.185E-01 -0.493E-02
 -6.140  0.187E+00  0.177E+00  0.142E-01 -0.444E-02
 -6.120  0.193E+00  0.187E+00  0.103E-01 -0.389E-02
 -6.100  0.199E+00  0.196E+00  0.700E-02 -0.332E-02
 -6.080  0.205E+00  0.204E+00  0.423E-02 -0.277E-02
 -6.060  0.210E+00  0.210E+00  0.200E-02 -0.225E-02
 -6.040  0.214E+00  0.216E+00  0.269E-03 -0.178E-02
 -6.020  0.217E+00  0.219E+00 -0.101E-02 -0.138E-02
 -6.000  0.218E+00  0.220E+00 -0.189E-02 -0.103E-02
 -5.980  0.217E+00  0.220E+00 -0.244E-02 -0.742E-03
 -5.960  0.215E+00  0.218E+00 -0.271E-02 -0.507E-03
 -5.940  0.211E+00  0.214E+00 -0.277E-02 -0.320E-03
 -5.920  0.206E+00  0.208E+00 -0.267E-02 -0.173E-03
 -5.900  0.199E+00  0.202E+00 -0.245E-02 -0.612E-04
 -5.880  0.192E+00  0.194E+00 -0.217E-02  0.231E-04
 -5.860  0.184E+00  0.185E+00 -0.185E-02  0.853E-04
 -5.840  0.175E+00  0.177E+00 -0.152E-02  0.130E-03
 -5.820  0.167E+00  0.168E+00 -0.120E-02  0.162E-03
 -5.800  0.159E+00  0.159E+00 -0.907E-03  0.185E-03
 -5.780  0.151E+00  0.152E+00 -0.639E-03  0.201E-03
 -5.760  0.145E+00  0.145E+00 -0.406E-03  0.212E-03
 -5.740  0.140E+00  0.140E+00 -0.207E-03  0.221E-03
 -5.720  0.136E+00  0.136E+00 -0.405E-04  0.227E-03
 -5.700  0.133E+00  0.133E+00  0.958E-04  0.233E-03
 -5.680  0.132E+00  0.132E+00  0.206E-03  0.239E-03
 -5.660  0.133E+00  0.132E+00  0.293E-03  0.245E-03
 -5.640  0.135E+00  0.134E+00  0.361E-03  0.251E-03
 -5.620  0.137E+00  0.137E+00  0.414E-03  0.257E-03
 -5.600  0.141E+00  0.140E+00  0.455E-03  0.263E-03
 -5.580  0.145E+00  0.145E+00  0.486E-03  0.269E-03
 -5.560  0.150E+00  0.149E+00  0.510E-03  0.275E-03
 -5.540  0.154E+00  0.154E+00  0.528E-03  0.280E-03
 -5.520  0.159E+00  0.158E+00  0.542E-03  0.284E-03
 -5.500  0.162E+00  0.161E+00  0.552E-03  0.288E-03
 -5.480  0.165E+00  0.164E+00  0.561E-03  0.290E-03
 -5.460  0.167E+00  0.166E+00  0.567E-03  0.290E-03
 -5.440  0.168E+00  0.167E+00  0.574E-03  0.290E-03
 -5.420  0.168E+00  0.167E+00  0.580E-03  0.288E-03
 -5.400  0.166E+00  0.165E+00  0.587E-03  0.284E-03
 -5.380  0.164E+00  0.163E+00  0.596E-03  0.280E-03
 -5.360  0.162E+00  0.161E+00  0.606E-03  0.275E-03
 -5.340  0.158E+00  0.158E+00  0.619E-03  0.270E-03
 -5.320  0.155E+00  0.154E+00  0.634E-03  0.265E-03
 -5.300  0.152E+00  0.151E+00  0.653E-03  0.260E-03
 -5.280  0.148E+00  0.147E+00  0.674E-03  0.255E-03
 -5.260  0.146E+00  0.145E+00  0.699E-03  0.251E-03
 -5.240  0.144E+00  0.143E+00  0.727E-03  0.249E-03
 -5.220  0.143E+00  0.142E+00  0.757E-03  0.248E-03
 -5.200  0.143E+00  0.142E+00  0.790E-03  0.248E-03
 -5.180  0.143E+00  0.142E+00  0.825E-03  0.250E-03
 -5.160  0.145E+00  0.144E+00  0.861E-03  0.253E-03
 -5.140  0.148E+00  0.146E+00  0.898E-03  0.258E-03
 -5.120  0.151E+00  0.150E+00  0.935E-03  0.263E-03
 -5.100  0.154E+00  0.153E+00  0.971E-03  0.269E-03
 -5.080  0.158E+00  0.157E+00  0.100E-02  0.276E-03
 -5.060  0.162E+00  0.160E+00  0.104E-02  0.282E-03
 -5.040  0.165E+00  0.164E+00  0.106E-02  0.288E-03
 -5.020  0.168E+00  0.166E+00  0.109E-02  0.294E-03
 -5.000  0.170E+00  0.168E+00  0.111E-02  0.298E-03
 -4.980  0.170E+00  0.169E+00  0.112E-02  0.301E-03
 -4.960  0.170E+00  0.169E+00  0.112E-02  0.302E-03
 -4.940  0.169E+00  0.167E+00  0.112E-02  0.301E-03
 -4.920  0.166E+00  0.164E+00  0.111E-02  0.298E-03
 -4.900  0.161E+00  0.160E+00  0.110E-02  0.293E-03
 -4.880  0.156E+00  0.155E+00  0.107E-02  0.285E-03
 -4.860  0.149E+00  0.148E+00  0.104E-02  0.276E-03
 -4.840  0.142E+00  0.141E+00  0.100E-02  0.265E-03
 -4.820  0.134E+00  0.132E+00  0.956E-03  0.253E-03
 -4.800  0.125E+00  0.123E+00  0.905E-03  0.239E-03
 -4.780  0.115E+00  0.114E+00  0.850E-03  0.223E-03
 -4.760  0.106E+00  0.105E+00  0.792E-03  0.207E-03
 -4.740  0.963E-01  0.953E-01  0.732E-03  0.191E-03
 -4.720  0.871E-01  0.862E-01  0.672E-03  0.174E-03
 -4.700  0.784E-01  0.776E-01  0.614E-03  0.158E-03
 -4.680  0.702E-01  0.695E-01  0.559E-03  0.142E-03
 -4.660  0.628E-01  0.622E-01  0.507E-03  0.126E-03
 -4.640  0.561E-01  0.556E-01  0.460E-03  0.112E-03
 -4.620  0.503E-01  0.497E-01  0.418E-03  0.989E-04
 -4.600  0.452E-01  0.447E-01  0.383E-03  0.871E-04
 -4.580  0.409E-01  0.405E-01  0.353E-03  0.766E-04
 -4.560  0.374E-01  0.370E-01  0.328E-03  0.675E-04
 -4.540  0.345E-01  0.341E-01  0.310E-03  0.598E-04
 -4.520  0.322E-01  0.318E-01  0.296E-03  0.535E-04
 -4.500  0.303E-01  0.300E-01  0.286E-03  0.486E-04
 -4.480  0.288E-01  0.285E-01  0.281E-03  0.448E-04
 -4.460  0.277E-01  0.274E-01  0.278E-03  0.421E-04
 -4.440  0.268E-01  0.264E-01  0.277E-03  0.405E-04
 -4.420  0.260E-01  0.257E-01  0.279E-03  0.396E-04
 -4.400  0.253E-01  0.250E-01  0.281E-03  0.395E-04
 -4.380  0.247E-01  0.244E-01  0.284E-03  0.401E-04
 -4.360  0.241E-01  0.238E-01  0.287E-03  0.411E-04
 -4.340  0.236E-01  0.232E-01  0.291E-03  0.426E-04
 -4.320  0.230E-01  0.227E-01  0.294E-03  0.444E-04
 -4.300  0.224E-01  0.221E-01  0.297E-03  0.465E-04
 -4.280  0.219E-01  0.215E-01  0.300E-03  0.488E-04
 -4.260  0.214E-01  0.210E-01  0.302E-03  0.514E-04
 -4.240  0.208E-01  0.205E-01  0.305E-03  0.542E-04
 -4.220  0.203E-01  0.200E-01  0.308E-03  0.572E-04
 -4.200  0.199E-01  0.195E-01  0.310E-03  0.605E-04
 -4.180  0.195E-01  0.191E-01  0.313E-03  0.640E-04
 -4.160  0.191E-01  0.187E-01  0.317E-03  0.679E-04
 -4.140  0.188E-01  0.184E-01  0.321E-03  0.723E-04
 -4.120  0.185E-01  0.181E-01  0.326E-03  0.772E-04
 -4.100  0.183E-01  0.179E-01  0.331E-03  0.827E-04
 -4.080  0.181E-01  0.177E-01  0.338E-03  0.890E-04
 -4.060  0.180E-01  0.176E-01  0.346E-03  0.960E-04
 -4.040  0.179E-01  0.175E-01  0.356E-03  0.104E-03
 -4.020  0.179E-01  0.175E-01  0.366E-03  0.113E-03
 -4.000  0.180E-01  0.175E-01  0.378E-03  0.123E-03
 -3.980  0.180E-01  0.175E-01  0.392E-03  0.133E-03
 -3.960  0.181E-01  0.176E-01  0.407E-03  0.145E-03
 -3.940  0.183E-01  0.177E-01  0.422E-03  0.158E-03
 -3.920  0.184E-01  0.178E-01  0.439E-03  0.171E-03
 -3.900  0.186E-01  0.179E-01  0.455E-03  0.184E-03
 -3.880  0.187E-01  0.180E-01  0.472E-03  0.198E-03
 -3.860  0.188E-01  0.181E-01  0.487E-03  0.211E-03
 -3.840  0.188E-01  0.181E-01  0.501E-03  0.224E-03
 -3.820  0.187E-01  0.180E-01  0.512E-03  0.235E-03
 -3.800  0.186E-01  0.178E-01  0.521E-03  0.245E-03
 -3.780  0.184E-01  0.176E-01  0.525E-03  0.253E-03
 -3.760  0.180E-01  0.172E-01  0.526E-03  0.258E-03
 -3.740  0.175E-01  0.167E-01  0.522E-03  0.260E-03
 -3.720  0.169E-01  0.161E-01  0.512E-03  0.260E-03
 -3.700  0.161E-01  0.153E-01  0.498E-03  0.256E-03
 -3.680  0.152E-01  0.145E-01  0.478E-03  0.249E-03
 -3.660  0.142E-01  0.135E-01  0.453E-03  0.240E-03
 -3.640  0.131E-01  0.124E-01  0.424E-03  0.227E-03
 -3.620  0.119E-01  0.113E-01  0.391E-03  0.211E-03
 -3.600  0.106E-01  0.101E-01  0.356E-03  0.194E-03
 -3.580  0.934E-02  0.884E-02  0.318E-03  0.175E-03
 -3.560  0.803E-02  0.759E-02  0.279E-03  0.155E-03
 -3.540  0.673E-02  0.635E-02  0.240E-03  0.134E-03
 -3.520  0.545E-02  0.514E-02  0.202E-03  0.113E-03
 -3.500  0.422E-02  0.396E-02  0.165E-03  0.927E-04
 -3.480  0.303E-02  0.283E-02  0.131E-03  0.729E-04
 -3.460  0.189E-02  0.174E-02  0.998E-04  0.542E-04
 -3.440  0.792E-03  0.684E-03  0.719E-04  0.366E-04
 -3.420 -0.281E-03 -0.349E-03  0.475E-04  0.202E-04
 -3.400 -0.135E-02 -0.138E-02  0.268E-04  0.492E-05
 -3.380 -0.245E-02 -0.245E-02  0.957E-05 -0.947E-05
 -3.360 -0.361E-02 -0.358E-02 -0.435E-05 -0.233E-04
 -3.340 -0.486E-02 -0.481E-02 -0.153E-04 -0.368E-04
 -3.320 -0.624E-02 -0.617E-02 -0.236E-04 -0.505E-04
 -3.300 -0.778E-02 -0.768E-02 -0.298E-04 -0.647E-04
 -3.280 -0.950E-02 -0.938E-02 -0.342E-04 -0.798E-04
 -3.260 -0.114E-01 -0.113E-01 -0.372E-04 -0.961E-04
 -3.240 -0.135E-01 -0.133E-01 -0.392E-04 -0.114E-03
 -3.220 -0.157E-01 -0.155E-01 -0.404E-04 -0.132E-03
 -3.200 -0.179E-01 -0.177E-01 -0.410E-04 -0.152E-03
 -3.180 -0.200E-01 -0.198E-01 -0.411E-04 -0.171E-03
 -3.160 -0.220E-01 -0.217E-01 -0.405E-04 -0.189E-03
 -3.140 -0.234E-01 -0.232E-01 -0.392E-04 -0.205E-03
 -3.120 -0.242E-01 -0.239E-01 -0.370E-04 -0.215E-03
 -3.100 -0.238E-01 -0.236E-01 -0.333E-04 -0.219E-03
 -3.080 -0.221E-01 -0.218E-01 -0.280E-04 -0.212E-03
 -3.060 -0.185E-01 -0.183E-01 -0.204E-04 -0.192E-03
 -3.040 -0.127E-01 -0.125E-01 -0.101E-04 -0.154E-03
 -3.020 -0.410E-02 -0.401E-02  0.342E-05 -0.941E-04
 -3.000  0.762E-02  0.761E-02  0.205E-04 -0.880E-05
 -2.980  0.229E-01  0.227E-01  0.417E-04  0.106E-03
 -2.960  0.421E-01  0.417E-01  0.670E-04  0.254E-03
 -2.940  0.653E-01  0.648E-01  0.968E-04  0.439E-03
 -2.920  0.928E-01  0.921E-01  0.131E-03  0.662E-03
 -2.900  0.125E+00  0.123E+00  0.169E-03  0.923E-03
 -2.880  0.160E+00  0.159E+00  0.210E-03  0.122E-02
 -2.860  0.199E+00  0.198E+00  0.255E-03  0.156E-02
 -2.840  0.241E+00  0.239E+00  0.301E-03  0.192E-02
 -2.820  0.286E+00  0.283E+00  0.349E-03  0.232E-02
 -2.800  0.331E+00  0.328E+00  0.396E-03  0.272E-02
 -2.780  0.376E+00  0.373E+00  0.441E-03  0.314E-02
 -2.760  0.420E+00  0.416E+00  0.483E-03  0.355E-02
 -2.740  0.461E+00  0.457E+00  0.521E-03  0.395E-02
 -2.720  0.498E+00  0.493E+00  0.553E-03  0.431E-02
 -2.700  0.530E+00  0.525E+00  0.578E-03  0.464E-02
 -2.680  0.556E+00  0.550E+00  0.595E-03  0.491E-02
 -2.660  0.573E+00  0.568E+00  0.604E-03  0.511E-02
 -2.640  0.583E+00  0.577E+00  0.604E-03  0.525E-02
 -2.620  0.584E+00  0.578E+00  0.595E-03  0.530E-02
 -2.600  0.577E+00  0.571E+00  0.577E-03  0.528E-02
 -2.580  0.561E+00  0.555E+00  0.551E-03  0.517E-02
 -2.560  0.537E+00  0.531E+00  0.518E-03  0.499E-02
 -2.540  0.506E+00  0.500E+00  0.479E-03  0.474E-02
 -2.520  0.469E+00  0.464E+00  0.436E-03  0.443E-02
 -2.500  0.428E+00  0.423E+00  0.390E-03  0.407E-02
 -2.480  0.383E+00  0.379E+00  0.342E-03  0.367E-02
 -2.460  0.338E+00  0.334E+00  0.295E-03  0.326E-02
 -2.440  0.293E+00  0.290E+00  0.250E-03  0.285E-02
 -2.420  0.249E+00  0.246E+00  0.208E-03  0.244E-02
 -2.400  0.209E+00  0.207E+00  0.172E-03  0.206E-02
 -2.380  0.173E+00  0.171E+00  0.141E-03  0.172E-02
 -2.360  0.142E+00  0.140E+00  0.117E-03  0.142E-02
 -2.340  0.117E+00  0.116E+00  0.100E-03  0.118E-02
 -2.320  0.980E-01  0.969E-01  0.908E-04  0.987E-03
 -2.300  0.852E-01  0.842E-01  0.890E-04  0.852E-03
 -2.280  0.782E-01  0.774E-01  0.944E-04  0.772E-03
 -2.260  0.767E-01  0.759E-01  0.106E-03  0.742E-03
 -2.240  0.799E-01  0.790E-01  0.124E-03  0.756E-03
 -2.220  0.869E-01  0.859E-01  0.147E-03  0.806E-03
 -2.200  0.968E-01  0.957E-01  0.173E-03  0.884E-03
 -2.180  0.109E+00  0.107E+00  0.202E-03  0.980E-03
 -2.160  0.121E+00  0.120E+00  0.233E-03  0.108E-02
 -2.140  0.134E+00  0.133E+00  0.263E-03  0.119E-02
 -2.120  0.146E+00  0.145E+00  0.293E-03  0.129E-02
 -2.100  0.157E+00  0.155E+00  0.322E-03  0.137E-02
 -2.080  0.165E+00  0.163E+00  0.347E-03  0.144E-02
 -2.060  0.171E+00  0.169E+00  0.370E-03  0.148E-02
 -2.040  0.175E+00  0.173E+00  0.389E-03  0.150E-02
 -2.020  0.175E+00  0.173E+00  0.404E-03  0.149E-02
 -2.000  0.173E+00  0.172E+00  0.416E-03  0.146E-02
 -1.980  0.169E+00  0.167E+00  0.424E-03  0.141E-02
 -1.960  0.163E+00  0.161E+00  0.428E-03  0.134E-02
 -1.940  0.154E+00  0.153E+00  0.429E-03  0.126E-02
 -1.920  0.145E+00  0.143E+00  0.428E-03  0.116E-02
 -1.900  0.134E+00  0.132E+00  0.425E-03  0.106E-02
 -1.880  0.123E+00  0.121E+00  0.420E-03  0.948E-03
 -1.860  0.111E+00  0.110E+00  0.413E-03  0.839E-03
 -1.840  0.100E+00  0.989E-01  0.407E-03  0.734E-03
 -1.820  0.892E-01  0.881E-01  0.400E-03  0.635E-03
 -1.800  0.790E-01  0.780E-01  0.393E-03  0.544E-03
 -1.780  0.696E-01  0.688E-01  0.387E-03  0.462E-03
 -1.760  0.612E-01  0.605E-01  0.382E-03  0.391E-03
 -1.740  0.539E-01  0.532E-01  0.377E-03  0.331E-03
 -1.720  0.476E-01  0.470E-01  0.374E-03  0.281E-03
 -1.700  0.425E-01  0.419E-01  0.372E-03  0.243E-03
 -1.680  0.384E-01  0.378E-01  0.370E-03  0.215E-03
 -1.660  0.355E-01  0.349E-01  0.370E-03  0.197E-03
 -1.640  0.336E-01  0.330E-01  0.371E-03  0.187E-03
 -1.620  0.328E-01  0.322E-01  0.373E-03  0.186E-03
 -1.600  0.329E-01  0.324E-01  0.376E-03  0.192E-03
 -1.580  0.341E-01  0.336E-01  0.381E-03  0.203E-03
 -1.560  0.363E-01  0.357E-01  0.387E-03  0.220E-03
 -1.540  0.395E-01  0.388E-01  0.394E-03  0.241E-03
 -1.520  0.435E-01  0.428E-01  0.402E-03  0.265E-03
 -1.500  0.485E-01  0.478E-01  0.412E-03  0.292E-03
 -1.480  0.542E-01  0.535E-01  0.424E-03  0.321E-03
 -1.460  0.608E-01  0.600E-01  0.437E-03  0.351E-03
 -1.440  0.680E-01  0.671E-01  0.451E-03  0.381E-03
 -1.420  0.757E-01  0.748E-01  0.467E-03  0.411E-03
 -1.400  0.838E-01  0.829E-01  0.483E-03  0.441E-03
 -1.380  0.921E-01  0.912E-01  0.500E-03  0.469E-03
 -1.360  0.100E+00  0.995E-01  0.518E-03  0.496E-03
 -1.340  0.109E+00  0.108E+00  0.535E-03  0.521E-03
 -1.320  0.116E+00  0.115E+00  0.551E-03  0.544E-03
 -1.300  0.124E+00  0.122E+00  0.565E-03  0.565E-03
 -1.280  0.130E+00  0.129E+00  0.578E-03  0.583E-03
 -1.260  0.135E+00  0.134E+00  0.589E-03  0.599E-03
 -1.240  0.140E+00  0.139E+00  0.596E-03  0.611E-03
 -1.220  0.143E+00  0.142E+00  0.601E-03  0.621E-03
 -1.200  0.145E+00  0.144E+00  0.603E-03  0.627E-03
 -1.180  0.146E+00  0.144E+00  0.603E-03  0.631E-03
 -1.160  0.145E+00  0.144E+00  0.600E-03  0.632E-03
 -1.140  0.144E+00  0.142E+00  0.595E-03  0.631E-03
 -1.120  0.141E+00  0.140E+00  0.589E-03  0.627E-03
 -1.100  0.138E+00  0.137E+00  0.583E-03  0.621E-03
 -1.080  0.135E+00  0.134E+00  0.578E-03  0.614E-03
 -1.060  0.131E+00  0.130E+00  0.573E-03  0.605E-03
 -1.040  0.127E+00  0.126E+00  0.571E-03  0.595E-03
 -1.020  0.123E+00  0.122E+00  0.571E-03  0.585E-03
 -1.000  0.120E+00  0.119E+00  0.574E-03  0.574E-03
 -0.980  0.117E+00  0.116E+00  0.581E-03  0.563E-03
 -0.960  0.115E+00  0.114E+00  0.591E-03  0.553E-03
 -0.940  0.113E+00  0.112E+00  0.604E-03  0.543E-03
 -0.920  0.111E+00  0.110E+00  0.620E-03  0.534E-03
 -0.900  0.110E+00  0.109E+00  0.638E-03  0.526E-03
 -0.880  0.110E+00  0.109E+00  0.658E-03  0.518E-03
 -0.860  0.110E+00  0.108E+00  0.679E-03  0.512E-03
 -0.840  0.110E+00  0.108E+00  0.700E-03  0.507E-03
 -0.820  0.110E+00  0.108E+00  0.720E-03  0.503E-03
 -0.800  0.110E+00  0.108E+00  0.738E-03  0.501E-03
 -0.780  0.109E+00  0.108E+00  0.755E-03  0.499E-03
 -0.760  0.109E+00  0.108E+00  0.770E-03  0.499E-03
 -0.740  0.108E+00  0.107E+00  0.782E-03  0.501E-03
 -0.720  0.107E+00  0.106E+00  0.791E-03  0.504E-03
 -0.700  0.106E+00  0.104E+00  0.797E-03  0.508E-03
 -0.680  0.104E+00  0.103E+00  0.801E-03  0.513E-03
 -0.660  0.102E+00  0.101E+00  0.803E-03  0.520E-03
 -0.640  0.100E+00  0.987E-01  0.802E-03  0.526E-03
 -0.620  0.978E-01  0.965E-01  0.799E-03  0.534E-03
 -0.600  0.955E-01  0.942E-01  0.793E-03  0.541E-03
 -0.580  0.933E-01  0.920E-01  0.787E-03  0.548E-03
 -0.560  0.912E-01  0.899E-01  0.778E-03  0.554E-03
 -0.540  0.894E-01  0.881E-01  0.768E-03  0.558E-03
 -0.520  0.878E-01  0.865E-01  0.756E-03  0.561E-03
 -0.500  0.866E-01  0.853E-01  0.743E-03  0.563E-03
 -0.480  0.858E-01  0.845E-01  0.728E-03  0.562E-03
 -0.460  0.854E-01  0.841E-01  0.712E-03  0.559E-03
 -0.440  0.855E-01  0.842E-01  0.694E-03  0.554E-03
 -0.420  0.859E-01  0.847E-01  0.675E-03  0.547E-03
 -0.400  0.868E-01  0.856E-01  0.654E-03  0.537E-03
 -0.380  0.881E-01  0.869E-01  0.633E-03  0.526E-03
 -0.360  0.897E-01  0.885E-01  0.612E-03  0.514E-03
 -0.340  0.915E-01  0.904E-01  0.591E-03  0.500E-03
 -0.320  0.935E-01  0.925E-01  0.571E-03  0.486E-03
 -0.300  0.957E-01  0.946E-01  0.552E-03  0.472E-03
 -0.280  0.979E-01  0.969E-01  0.537E-03  0.458E-03
 -0.260  0.100E+00  0.991E-01  0.524E-03  0.445E-03
 -0.240  0.102E+00  0.101E+00  0.517E-03  0.432E-03
 -0.220  0.104E+00  0.103E+00  0.514E-03  0.421E-03
 -0.200  0.106E+00  0.105E+00  0.518E-03  0.412E-03
 -0.180  0.108E+00  0.107E+00  0.530E-03  0.405E-03
 -0.160  0.109E+00  0.108E+00  0.549E-03  0.401E-03
 -0.140  0.110E+00  0.109E+00  0.575E-03  0.400E-03
 -0.120  0.110E+00  0.109E+00  0.611E-03  0.401E-03
 -0.100  0.110E+00  0.109E+00  0.654E-03  0.406E-03
 -0.080  0.110E+00  0.109E+00  0.704E-03  0.414E-03
 -0.060  0.109E+00  0.108E+00  0.761E-03  0.426E-03
 -0.040  0.108E+00  0.107E+00  0.824E-03  0.442E-03
 -0.020  0.106E+00  0.105E+00  0.892E-03  0.461E-03
 -0.000  0.104E+00  0.103E+00  0.962E-03  0.484E-03
  0.020  0.102E+00  0.100E+00  0.103E-02  0.510E-03
  0.040  0.987E-01  0.970E-01  0.110E-02  0.541E-03
  0.060  0.953E-01  0.936E-01  0.117E-02  0.575E-03
  0.080  0.917E-01  0.899E-01  0.123E-02  0.614E-03
  0.100  0.880E-01  0.860E-01  0.129E-02  0.658E-03
  0.120  0.841E-01  0.821E-01  0.134E-02  0.708E-03
  0.140  0.803E-01  0.782E-01  0.138E-02  0.765E-03
  0.160  0.766E-01  0.744E-01  0.141E-02  0.829E-03
  0.180  0.732E-01  0.708E-01  0.143E-02  0.903E-03
  0.200  0.700E-01  0.676E-01  0.144E-02  0.988E-03
  0.220  0.672E-01  0.647E-01  0.144E-02  0.109E-02
  0.240  0.649E-01  0.622E-01  0.144E-02  0.120E-02
  0.260  0.630E-01  0.603E-01  0.142E-02  0.133E-02
  0.280  0.616E-01  0.588E-01  0.140E-02  0.147E-02
  0.300  0.607E-01  0.577E-01  0.137E-02  0.163E-02
  0.320  0.604E-01  0.572E-01  0.133E-02  0.181E-02
  0.340  0.605E-01  0.572E-01  0.130E-02  0.201E-02
  0.360  0.610E-01  0.575E-01  0.126E-02  0.223E-02
  0.380  0.620E-01  0.584E-01  0.123E-02  0.246E-02
  0.400  0.635E-01  0.596E-01  0.119E-02  0.270E-02
  0.420  0.653E-01  0.612E-01  0.116E-02  0.295E-02
  0.440  0.675E-01  0.631E-01  0.113E-02  0.321E-02
  0.460  0.700E-01  0.655E-01  0.110E-02  0.347E-02
  0.480  0.729E-01  0.681E-01  0.109E-02  0.372E-02
  0.500  0.761E-01  0.711E-01  0.107E-02  0.397E-02
  0.520  0.796E-01  0.743E-01  0.106E-02  0.421E-02
  0.540  0.833E-01  0.778E-01  0.106E-02  0.443E-02
  0.560  0.872E-01  0.815E-01  0.106E-02  0.463E-02
  0.580  0.912E-01  0.854E-01  0.107E-02  0.481E-02
  0.600  0.953E-01  0.892E-01  0.109E-02  0.496E-02
  0.620  0.993E-01  0.931E-01  0.110E-02  0.508E-02
  0.640  0.103E+00  0.968E-01  0.112E-02  0.517E-02
  0.660  0.107E+00  0.100E+00  0.115E-02  0.523E-02
  0.680  0.110E+00  0.103E+00  0.118E-02  0.526E-02
  0.700  0.112E+00  0.106E+00  0.120E-02  0.525E-02
  0.720  0.114E+00  0.108E+00  0.123E-02  0.522E-02
  0.740  0.116E+00  0.109E+00  0.126E-02  0.515E-02
  0.760  0.117E+00  0.110E+00  0.128E-02  0.505E-02
  0.780  0.117E+00  0.110E+00  0.130E-02  0.493E-02
  0.800  0.116E+00  0.110E+00  0.132E-02  0.479E-02
  0.820  0.114E+00  0.108E+00  0.133E-02  0.463E-02
  0.840  0.112E+00  0.106E+00  0.133E-02  0.444E-02
  0.860  0.109E+00  0.103E+00  0.133E-02  0.424E-02
  0.880  0.105E+00  0.999E-01  0.132E-02  0.403E-02
  0.900  0.101E+00  0.960E-01  0.130E-02  0.381E-02
  0.920  0.966E-01  0.917E-01  0.127E-02  0.358E-02
  0.940  0.916E-01  0.870E-01  0.123E-02  0.334E-02
  0.960  0.864E-01  0.821E-01  0.119E-02  0.310E-02
  0.980  0.810E-01  0.770E-01  0.114E-02  0.286E-02
  1.000  0.754E-01  0.717E-01  0.108E-02  0.262E-02
  1.020  0.698E-01  0.664E-01  0.102E-02  0.238E-02
  1.040  0.642E-01  0.612E-01  0.956E-03  0.214E-02
  1.060  0.587E-01  0.559E-01  0.885E-03  0.191E-02
  1.080  0.533E-01  0.508E-01  0.812E-03  0.168E-02
  1.100  0.481E-01  0.459E-01  0.737E-03  0.147E-02
  1.120  0.430E-01  0.411E-01  0.661E-03  0.126E-02
  1.140  0.382E-01  0.365E-01  0.587E-03  0.107E-02
  1.160  0.336E-01  0.322E-01  0.514E-03  0.887E-03
  1.180  0.293E-01  0.282E-01  0.444E-03  0.721E-03
  1.200  0.253E-01  0.244E-01  0.377E-03  0.571E-03
  1.220  0.216E-01  0.208E-01  0.315E-03  0.437E-03
  1.240  0.182E-01  0.176E-01  0.258E-03  0.319E-03
  1.260  0.151E-01  0.146E-01  0.207E-03  0.218E-03
  1.280  0.123E-01  0.120E-01  0.161E-03  0.133E-03
  1.300  0.977E-02  0.959E-02  0.120E-03  0.637E-04
  1.320  0.757E-02  0.748E-02  0.852E-04  0.847E-05
  1.340  0.565E-02  0.563E-02  0.559E-04 -0.338E-04
  1.360  0.401E-02  0.404E-02  0.317E-04 -0.646E-04
  1.380  0.262E-02  0.269E-02  0.122E-04 -0.854E-04
  1.400  0.147E-02  0.157E-02 -0.290E-05 -0.978E-04
  1.420  0.538E-03  0.656E-03 -0.142E-04 -0.103E-03
  1.440 -0.197E-03 -0.711E-04 -0.222E-04 -0.104E-03
  1.460 -0.756E-03 -0.628E-03 -0.274E-04 -0.100E-03
  1.480 -0.116E-02 -0.104E-02 -0.303E-04 -0.936E-04
  1.500 -0.143E-02 -0.132E-02 -0.314E-04 -0.854E-04
  1.520 -0.159E-02 -0.148E-02 -0.310E-04 -0.762E-04
  1.540 -0.166E-02 -0.156E-02 -0.296E-04 -0.666E-04
  1.560 -0.166E-02 -0.157E-02 -0.275E-04 -0.573E-04
  1.580 -0.160E-02 -0.152E-02 -0.250E-04 -0.485E-04
  1.600 -0.150E-02 -0.143E-02 -0.222E-04 -0.404E-04
  1.620 -0.137E-02 -0.132E-02 -0.194E-04 -0.332E-04
  1.640 -0.123E-02 -0.118E-02 -0.166E-04 -0.269E-04
  1.660 -0.108E-02 -0.104E-02 -0.140E-04 -0.215E-04
  1.680 -0.933E-03 -0.905E-03 -0.117E-04 -0.170E-04
  1.700 -0.794E-03 -0.771E-03 -0.958E-05 -0.133E-04
  1.720 -0.664E-03 -0.646E-03 -0.776E-05 -0.103E-04
  1.740 -0.548E-03 -0.534E-03 -0.620E-05 -0.786E-05
  1.760 -0.446E-03 -0.435E-03 -0.489E-05 -0.594E-05
  1.780 -0.357E-03 -0.349E-03 -0.380E-05 -0.444E-05
  1.800 -0.282E-03 -0.276E-03 -0.293E-05 -0.329E-05
  1.820 -0.220E-03 -0.216E-03 -0.222E-05 -0.241E-05
  1.840 -0.170E-03 -0.166E-03 -0.167E-05 -0.174E-05
  1.860 -0.129E-03 -0.126E-03 -0.124E-05 -0.125E-05
  1.880 -0.967E-04 -0.949E-04 -0.906E-06 -0.890E-06
  1.900 -0.717E-04 -0.704E-04 -0.656E-06 -0.626E-06
  1.920 -0.524E-04 -0.515E-04 -0.470E-06 -0.436E-06
  1.940 -0.379E-04 -0.372E-04 -0.332E-06 -0.301E-06
  1.960 -0.270E-04 -0.266E-04 -0.232E-06 -0.206E-06
  1.980 -0.191E-04 -0.188E-04 -0.161E-06 -0.139E-06
  2.000 -0.133E-04 -0.131E-04 -0.110E-06 -0.933E-07
  2.020 -0.913E-05 -0.899E-05 -0.741E-07 -0.619E-07
  2.040 -0.620E-05 -0.611E-05 -0.494E-07 -0.407E-07
